Gradient Profiler Text Data File: 20160617_exp26_26f3.csv
Version: 2.02
Date: 2016-06-17
Time: 19:06:46

User: subramaniam_lab
Experiment name: 
UV Unit: EM-1
Rotor Manufacturer: Beckman
Rotor Model: SW41Ti
Speed: 35000 rpm
Gradient: sucrose 10.0% to 50.0% w/v
Time: 2:30
w2t: 200000 x 10^0
Sample Volume: 400 ml
Number of Tubes: 2
Volume per mm: 0.143 ml/mm
Temperature: 25.0 deg C

Absorbance Units Full Scale (AUFS): 2.00
Event Mark-triggered gradient; (with distance; auto start and stop)
Delay: Event with Delay
UV Wavelength: 254 nm
Samples / sec: 10 Hz
EM1 Speed: 0.30 mm/sec
Distance: 5.03 mm
Number: 16
Dead Volume: 0.217300 ml; Distance due to Dead Volume: 1.52 mm
Length of Tubing: 330 mm
Total Distance: 80.48 mm

Data Columns:
Distance(mm), Absorbance, Fraction Number, Fraction Volume(ml)
0.00, 0.000539, , 
0.03, 0.000539, , 
0.06, 0.000539, , 
0.09, 0.000539, , 
0.12, 0.000533, , 
0.15, 0.000536, , 
0.18, 0.000536, , 
0.21, 0.000536, , 
0.24, 0.000536, , 
0.27, 0.000536, , 
0.30, 0.000539, , 
0.33, 0.000539, , 
0.36, 0.000539, , 
0.39, 0.000733, , 
0.42, 0.002001, , 
0.45, 0.006150, , 
0.48, 0.014791, , 
0.51, 0.025150, , 
0.54, 0.037702, , 
0.57, 0.052166, , 
0.60, 0.070198, , 
0.63, 0.089855, , 
0.66, 0.110180, , 
0.69, 0.132523, , 
0.72, 0.161090, , 
0.75, 0.185406, , 
0.78, 0.216282, , 
0.81, 0.245977, , 
0.84, 0.281103, , 
0.87, 0.311186, , 
0.90, 0.341005, , 
0.93, 0.367618, , 
0.96, 0.402696, , 
0.99, 0.428459, , 
1.02, 0.452321, , 
1.05, 0.478223, , 
1.08, 0.497077, , 
1.11, 0.518383, , 
1.14, 0.536666, , 
1.17, 0.556503, , 
1.20, 0.571957, , 
1.23, 0.584575, , 
1.26, 0.597932, , 
1.29, 0.609893, , 
1.32, 0.618718, , 
1.35, 0.626946, , 
1.38, 0.635104, , 
1.41, 0.644007, , 
1.44, 0.652616, , 
1.47, 0.660343, , 
1.50, 0.667597, , 
1.50, 0.668749, , 
1.53, 0.675264, , 
1.56, 0.680542, , 
1.59, 0.686077, , 
1.62, 0.690273, , 
1.65, 0.694130, , 
1.68, 0.696478, , 
1.71, 0.697841, , 
1.74, 0.698685, , 
1.77, 0.698565, , 
1.80, 0.697730, , 
1.83, 0.696392, , 
1.86, 0.694603, , 
1.89, 0.692091, , 
1.92, 0.689119, , 
1.95, 0.685921, , 
1.98, 0.682375, , 
2.01, 0.677972, , 
2.04, 0.674055, , 
2.07, 0.670011, , 
2.10, 0.665780, , 
2.13, 0.660587, , 
2.16, 0.655928, , 
2.19, 0.651170, , 
2.22, 0.646424, , 
2.25, 0.640810, , 
2.28, 0.635929, , 
2.31, 0.631012, , 
2.34, 0.626035, , 
2.37, 0.620043, , 
2.40, 0.614854, , 
2.43, 0.609614, , 
2.46, 0.604390, , 
2.49, 0.598370, , 
2.52, 0.593187, , 
2.55, 0.587890, , 
2.58, 0.582548, , 
2.61, 0.576356, , 
2.64, 0.571120, , 
2.67, 0.565927, , 
2.70, 0.560719, , 
2.73, 0.554597, , 
2.76, 0.549344, , 
2.79, 0.544050, , 
2.82, 0.538791, , 
2.85, 0.532730, , 
2.88, 0.527616, , 
2.91, 0.522545, , 
2.94, 0.517492, , 
2.97, 0.511601, , 
3.00, 0.506558, , 
3.03, 0.501613, , 
3.06, 0.496773, , 
3.09, 0.491288, , 
3.12, 0.486629, , 
3.15, 0.481915, , 
3.18, 0.477176, , 
3.21, 0.471632, , 
3.24, 0.467010, , 
3.27, 0.462525, , 
3.30, 0.458078, , 
3.33, 0.452800, , 
3.36, 0.448296, , 
3.39, 0.443862, , 
3.42, 0.439557, , 
3.45, 0.434631, , 
3.48, 0.430409, , 
3.51, 0.426226, , 
3.54, 0.422083, , 
3.57, 0.417350, , 
3.60, 0.413338, , 
3.63, 0.409310, , 
3.66, 0.405364, , 
3.69, 0.400771, , 
3.72, 0.396879, , 
3.75, 0.392987, , 
3.78, 0.389076, , 
3.81, 0.384550, , 
3.84, 0.380819, , 
3.87, 0.377203, , 
3.90, 0.373686, , 
3.93, 0.369600, , 
3.96, 0.366083, , 
3.99, 0.362581, , 
4.02, 0.359126, , 
4.05, 0.355133, , 
4.08, 0.351758, , 
4.11, 0.348383, , 
4.14, 0.345053, , 
4.17, 0.341313, , 
4.20, 0.338189, , 
4.23, 0.335083, , 
4.26, 0.331965, , 
4.29, 0.328359, , 
4.32, 0.325333, , 
4.35, 0.322326, , 
4.38, 0.319312, , 
4.41, 0.315830, , 
4.44, 0.312905, , 
4.47, 0.310063, , 
4.50, 0.307310, , 
4.53, 0.304170, , 
4.56, 0.301489, , 
4.59, 0.298793, , 
4.62, 0.296179, , 
4.65, 0.293207, , 
4.68, 0.290724, , 
4.71, 0.288224, , 
4.74, 0.285668, , 
4.77, 0.282670, , 
4.80, 0.280142, , 
4.83, 0.277658, , 
4.86, 0.275238, , 
4.89, 0.272501, , 
4.92, 0.270239, , 
4.95, 0.268009, , 
4.98, 0.265754, , 
5.01, 0.263188, 1, 0.719
5.04, 0.261022, , 
5.07, 0.258903, , 
5.10, 0.256863, , 
5.13, 0.254430, , 
5.16, 0.252226, , 
5.19, 0.249993, , 
5.22, 0.247836, , 
5.25, 0.245514, , 
5.28, 0.243668, , 
5.31, 0.241812, , 
5.34, 0.239846, , 
5.37, 0.237461, , 
5.40, 0.235392, , 
5.43, 0.233391, , 
5.46, 0.231399, , 
5.49, 0.229049, , 
5.52, 0.226968, , 
5.55, 0.224811, , 
5.58, 0.222657, , 
5.61, 0.220174, , 
5.64, 0.218080, , 
5.67, 0.216040, , 
5.70, 0.214036, , 
5.73, 0.211603, , 
5.76, 0.209430, , 
5.79, 0.207216, , 
5.82, 0.205094, , 
5.85, 0.202794, , 
5.88, 0.200958, , 
5.91, 0.199112, , 
5.94, 0.197193, , 
5.97, 0.194972, , 
6.00, 0.193158, , 
6.03, 0.191395, , 
6.06, 0.189656, , 
6.09, 0.187604, , 
6.12, 0.185825, , 
6.15, 0.184071, , 
6.18, 0.182374, , 
6.21, 0.180505, , 
6.24, 0.178976, , 
6.27, 0.177435, , 
6.30, 0.175858, , 
6.33, 0.174038, , 
6.36, 0.172496, , 
6.39, 0.170936, , 
6.42, 0.169394, , 
6.45, 0.167713, , 
6.48, 0.166339, , 
6.51, 0.164937, , 
6.54, 0.163488, , 
6.54, 0.163240, , 
6.57, 0.161734, , 
6.60, 0.160205, , 
6.63, 0.158759, , 
6.66, 0.157391, , 
6.69, 0.155761, , 
6.72, 0.154283, , 
6.75, 0.152817, , 
6.78, 0.151431, , 
6.81, 0.149899, , 
6.84, 0.148586, , 
6.87, 0.147257, , 
6.90, 0.145988, , 
6.93, 0.144542, , 
6.96, 0.143311, , 
6.99, 0.142106, , 
7.02, 0.140869, , 
7.05, 0.139368, , 
7.08, 0.138128, , 
7.11, 0.136974, , 
7.14, 0.135819, , 
7.17, 0.134414, , 
7.20, 0.133266, , 
7.23, 0.132235, , 
7.26, 0.131134, , 
7.29, 0.130154, , 
7.32, 0.129098, , 
7.35, 0.128010, , 
7.38, 0.126738, , 
7.41, 0.125748, , 
7.44, 0.124816, , 
7.47, 0.123874, , 
7.50, 0.122824, , 
7.53, 0.121761, , 
7.56, 0.120762, , 
7.59, 0.119826, , 
7.62, 0.118738, , 
7.65, 0.117812, , 
7.68, 0.116921, , 
7.71, 0.116058, , 
7.74, 0.115084, , 
7.77, 0.114278, , 
7.80, 0.113501, , 
7.83, 0.112721, , 
7.86, 0.111855, , 
7.89, 0.111186, , 
7.92, 0.110494, , 
7.95, 0.109793, , 
7.98, 0.108981, , 
8.01, 0.108347, , 
8.04, 0.107719, , 
8.07, 0.107065, , 
8.10, 0.106339, , 
8.13, 0.105740, , 
8.16, 0.105131, , 
8.19, 0.104579, , 
8.22, 0.103979, , 
8.25, 0.103469, , 
8.28, 0.102974, , 
8.31, 0.102520, , 
8.34, 0.102063, , 
8.37, 0.101727, , 
8.40, 0.101413, , 
8.43, 0.101061, , 
8.46, 0.100633, , 
8.49, 0.100316, , 
8.52, 0.100040, , 
8.55, 0.099751, , 
8.58, 0.099443, , 
8.61, 0.099202, , 
8.64, 0.098999, , 
8.67, 0.098806, , 
8.70, 0.098562, , 
8.73, 0.098381, , 
8.76, 0.098279, , 
8.79, 0.098276, , 
8.82, 0.098298, , 
8.85, 0.098276, , 
8.88, 0.098228, , 
8.91, 0.098206, , 
8.94, 0.098270, , 
8.97, 0.098412, , 
9.00, 0.098549, , 
9.03, 0.098619, , 
9.06, 0.098761, , 
9.09, 0.099047, , 
9.12, 0.099412, , 
9.15, 0.099789, , 
9.18, 0.100236, , 
9.21, 0.100642, , 
9.24, 0.101115, , 
9.27, 0.101683, , 
9.30, 0.102377, , 
9.33, 0.102999, , 
9.36, 0.103700, , 
9.39, 0.104512, , 
9.42, 0.105622, , 
9.45, 0.106631, , 
9.48, 0.107655, , 
9.51, 0.108743, , 
9.54, 0.110209, , 
9.57, 0.111624, , 
9.60, 0.113076, , 
9.63, 0.114589, , 
9.66, 0.116454, , 
9.69, 0.118243, , 
9.72, 0.120210, , 
9.75, 0.122294, , 
9.78, 0.124762, , 
9.81, 0.126950, , 
9.84, 0.129301, , 
9.87, 0.131784, , 
9.90, 0.134779, , 
9.93, 0.137376, , 
9.96, 0.140098, , 
9.99, 0.142972, , 
10.02, 0.146585, , 
10.05, 0.149845, 2, 0.719
10.08, 0.153090, , 
10.11, 0.156319, , 
10.14, 0.160072, , 
10.17, 0.163177, , 
10.20, 0.166114, , 
10.23, 0.168871, , 
10.26, 0.171973, , 
10.29, 0.174593, , 
10.32, 0.177159, , 
10.35, 0.179557, , 
10.38, 0.182297, , 
10.41, 0.184699, , 
10.44, 0.187252, , 
10.47, 0.189935, , 
10.50, 0.193104, , 
10.53, 0.195832, , 
10.56, 0.198550, , 
10.59, 0.201300, , 
10.62, 0.204587, , 
10.65, 0.207429, , 
10.68, 0.210337, , 
10.71, 0.213335, , 
10.74, 0.216944, , 
10.77, 0.220132, , 
10.80, 0.223285, , 
10.83, 0.226394, , 
10.86, 0.230026, , 
10.89, 0.233080, , 
10.92, 0.236090, , 
10.95, 0.238964, , 
10.98, 0.242009, , 
11.01, 0.244363, , 
11.04, 0.246453, , 
11.07, 0.248369, , 
11.10, 0.250377, , 
11.13, 0.251852, , 
11.16, 0.253063, , 
11.19, 0.254081, , 
11.22, 0.255182, , 
11.25, 0.256042, , 
11.28, 0.256765, , 
11.31, 0.257311, , 
11.34, 0.257742, , 
11.37, 0.257996, , 
11.40, 0.258088, , 
11.43, 0.257983, , 
11.46, 0.257536, , 
11.49, 0.256889, , 
11.52, 0.256039, , 
11.55, 0.255033, , 
11.58, 0.253631, , 
11.58, 0.253409, , 
11.61, 0.252223, , 
11.64, 0.250618, , 
11.67, 0.248930, , 
11.70, 0.246922, , 
11.73, 0.245099, , 
11.76, 0.243100, , 
11.79, 0.240908, , 
11.82, 0.238222, , 
11.85, 0.235881, , 
11.88, 0.233464, , 
11.91, 0.230980, , 
11.94, 0.227910, , 
11.97, 0.225160, , 
12.00, 0.222457, , 
12.03, 0.219777, , 
12.06, 0.216577, , 
12.09, 0.213788, , 
12.12, 0.210946, , 
12.15, 0.208155, , 
12.18, 0.205012, , 
12.21, 0.202341, , 
12.24, 0.199610, , 
12.27, 0.196831, , 
12.30, 0.193643, , 
12.33, 0.191023, , 
12.36, 0.188426, , 
12.39, 0.185793, , 
12.42, 0.182754, , 
12.45, 0.180261, , 
12.48, 0.177809, , 
12.51, 0.175351, , 
12.54, 0.172506, , 
12.57, 0.170120, , 
12.60, 0.167818, , 
12.63, 0.165626, , 
12.66, 0.163126, , 
12.69, 0.161014, , 
12.72, 0.158930, , 
12.75, 0.156903, , 
12.78, 0.154651, , 
12.81, 0.152830, , 
12.84, 0.151009, , 
12.87, 0.149116, , 
12.90, 0.146918, , 
12.93, 0.145170, , 
12.96, 0.143543, , 
12.99, 0.141976, , 
13.02, 0.140212, , 
13.05, 0.138782, , 
13.08, 0.137427, , 
13.11, 0.136130, , 
13.14, 0.134626, , 
13.17, 0.133282, , 
13.20, 0.131968, , 
13.23, 0.130760, , 
13.26, 0.129443, , 
13.29, 0.128365, , 
13.32, 0.127334, , 
13.35, 0.126341, , 
13.38, 0.125269, , 
13.41, 0.124410, , 
13.44, 0.123553, , 
13.47, 0.122513, , 
13.50, 0.121663, , 
13.53, 0.120905, , 
13.56, 0.120194, , 
13.59, 0.119341, , 
13.62, 0.118634, , 
13.65, 0.118005, , 
13.68, 0.117454, , 
13.71, 0.116832, , 
13.74, 0.116277, , 
13.77, 0.115709, , 
13.80, 0.115163, , 
13.83, 0.114646, , 
13.86, 0.114336, , 
13.89, 0.114053, , 
13.92, 0.113727, , 
13.95, 0.113359, , 
13.98, 0.113070, , 
14.01, 0.112861, , 
14.04, 0.112658, , 
14.07, 0.112407, , 
14.10, 0.112239, , 
14.13, 0.112125, , 
14.16, 0.112093, , 
14.19, 0.112106, , 
14.22, 0.112103, , 
14.25, 0.112064, , 
14.28, 0.112061, , 
14.31, 0.112182, , 
14.34, 0.112350, , 
14.37, 0.112467, , 
14.40, 0.112591, , 
14.43, 0.112759, , 
14.46, 0.112949, , 
14.49, 0.113251, , 
14.52, 0.113612, , 
14.55, 0.113993, , 
14.58, 0.114247, , 
14.61, 0.114529, , 
14.64, 0.114907, , 
14.67, 0.115376, , 
14.70, 0.115769, , 
14.73, 0.116159, , 
14.76, 0.116565, , 
14.79, 0.117089, , 
14.82, 0.117542, , 
14.85, 0.117964, , 
14.88, 0.118370, , 
14.91, 0.118859, , 
14.94, 0.119360, , 
14.97, 0.119934, , 
15.00, 0.120502, , 
15.03, 0.121066, , 
15.06, 0.121533, , 
15.09, 0.122034, 3, 0.715
15.12, 0.122589, , 
15.15, 0.123255, , 
15.18, 0.123763, , 
15.21, 0.124229, , 
15.24, 0.124714, , 
15.27, 0.125285, , 
15.30, 0.125732, , 
15.33, 0.126173, , 
15.36, 0.126690, , 
15.39, 0.127369, , 
15.42, 0.127934, , 
15.45, 0.128435, , 
15.48, 0.128876, , 
15.51, 0.129361, , 
15.54, 0.129808, , 
15.57, 0.130281, , 
15.60, 0.130734, , 
15.63, 0.131277, , 
15.66, 0.131788, , 
15.69, 0.132336, , 
15.72, 0.132901, , 
15.75, 0.133491, , 
15.78, 0.133938, , 
15.81, 0.134427, , 
15.84, 0.134994, , 
15.87, 0.135676, , 
15.90, 0.136263, , 
15.93, 0.136850, , 
15.96, 0.137389, , 
15.99, 0.138052, , 
16.02, 0.138725, , 
16.05, 0.139454, , 
16.08, 0.140139, , 
16.11, 0.140885, , 
16.14, 0.141544, , 
16.17, 0.142236, , 
16.20, 0.142988, , 
16.23, 0.143904, , 
16.26, 0.144694, , 
16.29, 0.145532, , 
16.32, 0.146410, , 
16.35, 0.147454, , 
16.38, 0.148320, , 
16.41, 0.149179, , 
16.44, 0.150115, , 
16.47, 0.151304, , 
16.50, 0.152389, , 
16.53, 0.153471, , 
16.56, 0.154533, , 
16.59, 0.155837, , 
16.60, 0.156056, , 
16.62, 0.156966, , 
16.65, 0.158352, , 
16.68, 0.159843, , 
16.71, 0.161109, , 
16.74, 0.162409, , 
16.77, 0.163821, , 
16.80, 0.165556, , 
16.83, 0.167072, , 
16.86, 0.168639, , 
16.89, 0.170269, , 
16.92, 0.172265, , 
16.95, 0.174095, , 
16.98, 0.175960, , 
17.01, 0.177793, , 
17.04, 0.179922, , 
17.07, 0.181847, , 
17.10, 0.183871, , 
17.13, 0.185866, , 
17.16, 0.188172, , 
17.19, 0.190189, , 
17.22, 0.192273, , 
17.25, 0.194436, , 
17.28, 0.196983, , 
17.31, 0.199125, , 
17.34, 0.201243, , 
17.37, 0.203353, , 
17.40, 0.205776, , 
17.43, 0.207857, , 
17.46, 0.209900, , 
17.49, 0.211882, , 
17.52, 0.214179, , 
17.55, 0.216139, , 
17.58, 0.218055, , 
17.61, 0.219888, , 
17.64, 0.221921, , 
17.67, 0.223644, , 
17.70, 0.225350, , 
17.73, 0.226949, , 
17.76, 0.228643, , 
17.79, 0.229981, , 
17.82, 0.231266, , 
17.85, 0.232465, , 
17.88, 0.233746, , 
17.91, 0.234720, , 
17.94, 0.235611, , 
17.97, 0.236401, , 
18.00, 0.237200, , 
18.03, 0.237803, , 
18.06, 0.238323, , 
18.09, 0.238723, , 
18.12, 0.239037, , 
18.15, 0.239196, , 
18.18, 0.239303, , 
18.21, 0.239357, , 
18.24, 0.239227, , 
18.27, 0.238961, , 
18.30, 0.238637, , 
18.33, 0.238282, , 
18.36, 0.237752, , 
18.39, 0.237112, , 
18.42, 0.236344, , 
18.45, 0.235532, , 
18.48, 0.234590, , 
18.51, 0.233768, , 
18.54, 0.232880, , 
18.57, 0.231856, , 
18.60, 0.230546, , 
18.63, 0.229385, , 
18.66, 0.228173, , 
18.69, 0.226908, , 
18.72, 0.225372, , 
18.75, 0.224059, , 
18.78, 0.222740, , 
18.81, 0.221341, , 
18.84, 0.219625, , 
18.87, 0.218083, , 
18.90, 0.216554, , 
18.93, 0.215035, , 
18.96, 0.213227, , 
18.99, 0.211663, , 
19.02, 0.210055, , 
19.05, 0.208425, , 
19.08, 0.206506, , 
19.11, 0.204844, , 
19.14, 0.203134, , 
19.17, 0.201377, , 
19.20, 0.199362, , 
19.23, 0.197761, , 
19.26, 0.196194, , 
19.29, 0.194570, , 
19.32, 0.192590, , 
19.35, 0.190931, , 
19.38, 0.189358, , 
19.41, 0.187782, , 
19.44, 0.185936, , 
19.47, 0.184416, , 
19.50, 0.182916, , 
19.53, 0.181435, , 
19.56, 0.179779, , 
19.59, 0.178399, , 
19.62, 0.177032, , 
19.65, 0.175671, , 
19.68, 0.174117, , 
19.71, 0.172842, , 
19.74, 0.171573, , 
19.77, 0.170254, , 
19.80, 0.168683, , 
19.83, 0.167424, , 
19.86, 0.166292, , 
19.89, 0.165185, , 
19.92, 0.163907, , 
19.95, 0.162774, , 
19.98, 0.161686, , 
20.01, 0.160703, , 
20.04, 0.159656, , 
20.07, 0.158749, , 
20.10, 0.157832, 4, 0.718
20.13, 0.156931, , 
20.16, 0.155932, , 
20.19, 0.155104, , 
20.22, 0.154289, , 
20.25, 0.153496, , 
20.28, 0.152646, , 
20.31, 0.151986, , 
20.34, 0.151336, , 
20.37, 0.150714, , 
20.40, 0.150023, , 
20.43, 0.149493, , 
20.46, 0.149024, , 
20.49, 0.148542, , 
20.52, 0.147914, , 
20.55, 0.147336, , 
20.58, 0.146842, , 
20.61, 0.146489, , 
20.64, 0.146134, , 
20.67, 0.145788, , 
20.70, 0.145376, , 
20.73, 0.144951, , 
20.76, 0.144555, , 
20.79, 0.144291, , 
20.82, 0.143990, , 
20.85, 0.143603, , 
20.88, 0.143172, , 
20.91, 0.142867, , 
20.94, 0.142629, , 
20.97, 0.142426, , 
21.00, 0.142109, , 
21.03, 0.141779, , 
21.06, 0.141484, , 
21.09, 0.141259, , 
21.12, 0.141018, , 
21.15, 0.140780, , 
21.18, 0.140520, , 
21.21, 0.140279, , 
21.24, 0.140044, , 
21.27, 0.139873, , 
21.30, 0.139654, , 
21.33, 0.139410, , 
21.36, 0.139121, , 
21.39, 0.138924, , 
21.42, 0.138740, , 
21.45, 0.138550, , 
21.48, 0.138338, , 
21.51, 0.138160, , 
21.54, 0.137992, , 
21.57, 0.137890, , 
21.60, 0.137811, , 
21.63, 0.137757, , 
21.63, 0.137751, , 
21.66, 0.137722, , 
21.69, 0.137662, , 
21.72, 0.137576, , 
21.75, 0.137579, , 
21.78, 0.137599, , 
21.81, 0.137621, , 
21.84, 0.137662, , 
21.87, 0.137722, , 
21.90, 0.137817, , 
21.93, 0.137938, , 
21.96, 0.138112, , 
21.99, 0.138369, , 
22.02, 0.138734, , 
22.05, 0.139131, , 
22.08, 0.139629, , 
22.11, 0.140152, , 
22.14, 0.140828, , 
22.17, 0.141621, , 
22.20, 0.142613, , 
22.23, 0.143460, , 
22.26, 0.144361, , 
22.29, 0.145408, , 
22.32, 0.146864, , 
22.35, 0.148320, , 
22.38, 0.149918, , 
22.41, 0.151660, , 
22.44, 0.153924, , 
22.47, 0.156072, , 
22.50, 0.158464, , 
22.53, 0.161074, , 
22.56, 0.164357, , 
22.59, 0.167418, , 
22.62, 0.170825, , 
22.65, 0.174545, , 
22.68, 0.179205, , 
22.71, 0.183484, , 
22.74, 0.188029, , 
22.77, 0.193783, , 
22.80, 0.199077, , 
22.83, 0.204793, , 
22.86, 0.210883, , 
22.89, 0.218445, , 
22.92, 0.225325, , 
22.95, 0.232661, , 
22.98, 0.240350, , 
23.01, 0.249628, , 
23.04, 0.257900, , 
23.07, 0.266423, , 
23.10, 0.275295, , 
23.13, 0.285997, , 
23.16, 0.295377, , 
23.19, 0.305023, , 
23.22, 0.314802, , 
23.25, 0.326389, , 
23.28, 0.336393, , 
23.31, 0.346413, , 
23.34, 0.356465, , 
23.37, 0.368335, , 
23.40, 0.378516, , 
23.43, 0.388638, , 
23.46, 0.398554, , 
23.49, 0.409843, , 
23.52, 0.419349, , 
23.55, 0.428639, , 
23.58, 0.437756, , 
23.61, 0.447934, , 
23.64, 0.456254, , 
23.67, 0.464298, , 
23.70, 0.472022, , 
23.73, 0.480700, , 
23.76, 0.487777, , 
23.79, 0.494416, , 
23.82, 0.500601, , 
23.85, 0.506926, , 
23.88, 0.512562, , 
23.91, 0.517343, , 
23.94, 0.521663, , 
23.97, 0.526243, , 
24.00, 0.529821, , 
24.03, 0.532990, , 
24.06, 0.535730, , 
24.09, 0.538360, , 
24.12, 0.540171, , 
24.15, 0.541671, , 
24.18, 0.542908, , 
24.21, 0.543987, , 
24.24, 0.544513, , 
24.27, 0.544643, , 
24.30, 0.544466, , 
24.33, 0.543917, , 
24.36, 0.543127, , 
24.39, 0.542033, , 
24.42, 0.540675, , 
24.45, 0.538848, , 
24.48, 0.537189, , 
24.51, 0.534944, , 
24.54, 0.532631, , 
24.57, 0.529716, , 
24.60, 0.527055, , 
24.63, 0.524254, , 
24.66, 0.521285, , 
24.69, 0.517609, , 
24.72, 0.514317, , 
24.75, 0.510818, , 
24.78, 0.507192, , 
24.81, 0.502834, , 
24.84, 0.499018, , 
24.87, 0.495136, , 
24.90, 0.491203, , 
24.93, 0.486537, , 
24.96, 0.482435, , 
24.99, 0.478312, , 
25.02, 0.474147, , 
25.05, 0.469224, , 
25.08, 0.464980, , 
25.11, 0.461082, , 
25.14, 0.456413, 5, 0.719
25.17, 0.451360, , 
25.20, 0.447005, , 
25.23, 0.442643, , 
25.26, 0.438244, , 
25.29, 0.433086, , 
25.32, 0.428750, , 
25.35, 0.424471, , 
25.38, 0.420227, , 
25.41, 0.415365, , 
25.44, 0.411187, , 
25.47, 0.407035, , 
25.50, 0.402925, , 
25.53, 0.398243, , 
25.56, 0.394310, , 
25.59, 0.390373, , 
25.62, 0.386449, , 
25.65, 0.381844, , 
25.68, 0.377933, , 
25.71, 0.374073, , 
25.74, 0.370285, , 
25.77, 0.365867, , 
25.80, 0.362121, , 
25.83, 0.358467, , 
25.86, 0.354939, , 
25.89, 0.350892, , 
25.92, 0.347406, , 
25.95, 0.343999, , 
25.98, 0.340647, , 
26.01, 0.336850, , 
26.04, 0.333586, , 
26.07, 0.330338, , 
26.10, 0.327141, , 
26.13, 0.323468, , 
26.16, 0.320403, , 
26.19, 0.317368, , 
26.22, 0.314326, , 
26.25, 0.310745, , 
26.28, 0.307732, , 
26.31, 0.304820, , 
26.34, 0.301962, , 
26.37, 0.298634, , 
26.40, 0.295758, , 
26.43, 0.292928, , 
26.46, 0.290188, , 
26.49, 0.287092, , 
26.52, 0.284453, , 
26.55, 0.281785, , 
26.58, 0.279149, , 
26.61, 0.276101, , 
26.64, 0.273522, , 
26.67, 0.270966, , 
26.67, 0.270550, , 
26.70, 0.268454, , 
26.73, 0.265516, , 
26.76, 0.263083, , 
26.79, 0.260720, , 
26.82, 0.258373, , 
26.85, 0.255658, , 
26.88, 0.253361, , 
26.91, 0.251074, , 
26.94, 0.248781, , 
26.97, 0.246139, , 
27.00, 0.243871, , 
27.03, 0.241613, , 
27.06, 0.239411, , 
27.09, 0.236915, , 
27.12, 0.234853, , 
27.15, 0.232804, , 
27.18, 0.230714, , 
27.21, 0.228319, , 
27.24, 0.226343, , 
27.27, 0.224392, , 
27.30, 0.222422, , 
27.33, 0.220088, , 
27.36, 0.218147, , 
27.39, 0.216316, , 
27.42, 0.214553, , 
27.45, 0.212507, , 
27.48, 0.210731, , 
27.51, 0.208948, , 
27.54, 0.207229, , 
27.57, 0.205323, , 
27.60, 0.203721, , 
27.63, 0.202113, , 
27.66, 0.200546, , 
27.69, 0.198753, , 
27.72, 0.197269, , 
27.75, 0.195746, , 
27.78, 0.194221, , 
27.81, 0.192514, , 
27.84, 0.191147, , 
27.87, 0.189850, , 
27.90, 0.188549, , 
27.93, 0.187001, , 
27.96, 0.185663, , 
27.99, 0.184359, , 
28.02, 0.183090, , 
28.05, 0.181647, , 
28.08, 0.180448, , 
28.11, 0.179230, , 
28.14, 0.178006, , 
28.17, 0.176591, , 
28.20, 0.175443, , 
28.23, 0.174282, , 
28.26, 0.173124, , 
28.29, 0.171817, , 
28.32, 0.170755, , 
28.35, 0.169689, , 
28.38, 0.168592, , 
28.41, 0.167291, , 
28.44, 0.166181, , 
28.47, 0.165147, , 
28.50, 0.164183, , 
28.53, 0.162974, , 
28.56, 0.161915, , 
28.59, 0.160912, , 
28.62, 0.159983, , 
28.65, 0.158879, , 
28.68, 0.157867, , 
28.71, 0.156839, , 
28.74, 0.155815, , 
28.77, 0.154616, , 
28.80, 0.153629, , 
28.83, 0.152653, , 
28.86, 0.151599, , 
28.89, 0.150350, , 
28.92, 0.149306, , 
28.95, 0.148256, , 
28.98, 0.147016, , 
29.01, 0.145912, , 
29.04, 0.144792, , 
29.07, 0.143705, , 
29.10, 0.142474, , 
29.13, 0.141395, , 
29.16, 0.140292, , 
29.19, 0.139178, , 
29.22, 0.137938, , 
29.25, 0.136961, , 
29.28, 0.135949, , 
29.31, 0.134893, , 
29.34, 0.133602, , 
29.37, 0.132517, , 
29.40, 0.131537, , 
29.43, 0.130611, , 
29.46, 0.129513, , 
29.49, 0.128593, , 
29.52, 0.127712, , 
29.55, 0.126868, , 
29.58, 0.125872, , 
29.61, 0.124990, , 
29.64, 0.124089, , 
29.67, 0.123201, , 
29.70, 0.122221, , 
29.73, 0.121453, , 
29.76, 0.120708, , 
29.79, 0.119940, , 
29.82, 0.119040, , 
29.85, 0.118351, , 
29.88, 0.117672, , 
29.91, 0.116905, , 
29.94, 0.115937, , 
29.97, 0.115179, , 
30.00, 0.114469, , 
30.03, 0.113746, , 
30.06, 0.112918, , 
30.09, 0.112182, , 
30.12, 0.111474, , 
30.15, 0.110824, 6, 0.714
30.18, 0.110085, , 
30.21, 0.109444, , 
30.24, 0.108756, , 
30.27, 0.108074, , 
30.30, 0.107316, , 
30.33, 0.106710, , 
30.36, 0.106066, , 
30.39, 0.105403, , 
30.42, 0.104677, , 
30.45, 0.104081, , 
30.48, 0.103516, , 
30.51, 0.102967, , 
30.54, 0.102285, , 
30.57, 0.101651, , 
30.60, 0.101071, , 
30.63, 0.100566, , 
30.66, 0.100027, , 
30.69, 0.099538, , 
30.72, 0.098958, , 
30.75, 0.098365, , 
30.78, 0.097769, , 
30.81, 0.097309, , 
30.84, 0.096842, , 
30.87, 0.096351, , 
30.90, 0.095815, , 
30.93, 0.095402, , 
30.96, 0.094993, , 
30.99, 0.094552, , 
31.02, 0.093991, , 
31.05, 0.093537, , 
31.08, 0.093131, , 
31.11, 0.092732, , 
31.14, 0.092224, , 
31.17, 0.091758, , 
31.20, 0.091310, , 
31.23, 0.090882, , 
31.26, 0.090406, , 
31.29, 0.090023, , 
31.32, 0.089674, , 
31.35, 0.089341, , 
31.38, 0.088954, , 
31.41, 0.088621, , 
31.44, 0.088303, , 
31.47, 0.088005, , 
31.50, 0.087679, , 
31.53, 0.087444, , 
31.56, 0.087196, , 
31.59, 0.086914, , 
31.62, 0.086581, , 
31.65, 0.086308, , 
31.68, 0.086093, , 
31.68, 0.086067, , 
31.71, 0.085988, , 
31.74, 0.085823, , 
31.77, 0.085611, , 
31.80, 0.085382, , 
31.83, 0.085189, , 
31.86, 0.085049, , 
31.89, 0.084989, , 
31.92, 0.084900, , 
31.95, 0.084719, , 
31.98, 0.084532, , 
32.01, 0.084481, , 
32.04, 0.084491, , 
32.07, 0.084570, , 
32.10, 0.084678, , 
32.13, 0.084751, , 
32.16, 0.084833, , 
32.19, 0.084967, , 
32.22, 0.085138, , 
32.25, 0.085284, , 
32.28, 0.085515, , 
32.31, 0.085934, , 
32.34, 0.086305, , 
32.37, 0.086762, , 
32.40, 0.087177, , 
32.43, 0.087767, , 
32.46, 0.088376, , 
32.49, 0.089062, , 
32.52, 0.089782, , 
32.55, 0.090676, , 
32.58, 0.091545, , 
32.61, 0.092548, , 
32.64, 0.093613, , 
32.67, 0.094936, , 
32.70, 0.096106, , 
32.73, 0.097353, , 
32.76, 0.098736, , 
32.79, 0.100452, , 
32.82, 0.101981, , 
32.85, 0.103545, , 
32.88, 0.105175, , 
32.91, 0.107253, , 
32.94, 0.109222, , 
32.97, 0.111107, , 
33.00, 0.113359, , 
33.03, 0.115811, , 
33.06, 0.117958, , 
33.09, 0.120172, , 
33.12, 0.122506, , 
33.15, 0.125301, , 
33.18, 0.127664, , 
33.21, 0.130068, , 
33.24, 0.132571, , 
33.27, 0.135537, , 
33.30, 0.138033, , 
33.33, 0.140447, , 
33.36, 0.142889, , 
33.39, 0.145855, , 
33.42, 0.148453, , 
33.45, 0.151000, , 
33.48, 0.153455, , 
33.51, 0.156281, , 
33.54, 0.158682, , 
33.57, 0.161033, , 
33.60, 0.163282, , 
33.63, 0.165829, , 
33.66, 0.167963, , 
33.69, 0.170082, , 
33.72, 0.172166, , 
33.75, 0.174510, , 
33.78, 0.176417, , 
33.81, 0.178212, , 
33.84, 0.179915, , 
33.87, 0.181822, , 
33.90, 0.183366, , 
33.93, 0.184806, , 
33.96, 0.186151, , 
33.99, 0.187636, , 
34.02, 0.188854, , 
34.05, 0.190008, , 
34.08, 0.191052, , 
34.11, 0.192115, , 
34.14, 0.192911, , 
34.17, 0.193675, , 
34.20, 0.194379, , 
34.23, 0.195039, , 
34.26, 0.195521, , 
34.29, 0.195978, , 
34.32, 0.196447, , 
34.35, 0.196901, , 
34.38, 0.197126, , 
34.41, 0.197225, , 
34.44, 0.197291, , 
34.47, 0.197364, , 
34.50, 0.197412, , 
34.53, 0.197393, , 
34.56, 0.197256, , 
34.59, 0.197069, , 
34.62, 0.196882, , 
34.65, 0.196635, , 
34.68, 0.196295, , 
34.71, 0.195807, , 
34.74, 0.195369, , 
34.77, 0.194963, , 
34.80, 0.194570, , 
34.83, 0.194030, , 
34.86, 0.193409, , 
34.89, 0.192711, , 
34.92, 0.192054, , 
34.95, 0.191274, , 
34.98, 0.190525, , 
35.01, 0.189701, , 
35.04, 0.188847, , 
35.07, 0.187861, , 
35.10, 0.187046, , 
35.13, 0.186148, , 
35.16, 0.185133, , 
35.19, 0.183899, 7, 0.718
35.22, 0.182846, , 
35.25, 0.181831, , 
35.28, 0.180769, , 
35.31, 0.179487, , 
35.34, 0.178352, , 
35.37, 0.177184, , 
35.40, 0.176004, , 
35.43, 0.174631, , 
35.46, 0.173457, , 
35.49, 0.172255, , 
35.52, 0.171028, , 
35.55, 0.169572, , 
35.58, 0.168322, , 
35.61, 0.167025, , 
35.64, 0.165715, , 
35.67, 0.164303, , 
35.70, 0.163158, , 
35.73, 0.162000, , 
35.76, 0.160763, , 
35.79, 0.159234, , 
35.82, 0.157997, , 
35.85, 0.156855, , 
35.88, 0.155713, , 
35.91, 0.154280, , 
35.94, 0.153008, , 
35.97, 0.151815, , 
36.00, 0.150673, , 
36.03, 0.149335, , 
36.06, 0.148193, , 
36.09, 0.147045, , 
36.12, 0.145912, , 
36.15, 0.144647, , 
36.18, 0.143574, , 
36.21, 0.142499, , 
36.24, 0.141376, , 
36.27, 0.140082, , 
36.30, 0.138997, , 
36.33, 0.137963, , 
36.36, 0.136970, , 
36.39, 0.135730, , 
36.42, 0.134664, , 
36.45, 0.133694, , 
36.48, 0.132799, , 
36.51, 0.131759, , 
36.54, 0.130795, , 
36.57, 0.129751, , 
36.60, 0.128749, , 
36.63, 0.127677, , 
36.66, 0.126776, , 
36.69, 0.125866, , 
36.72, 0.124958, , 
36.72, 0.124809, , 
36.75, 0.123934, , 
36.78, 0.123100, , 
36.81, 0.122329, , 
36.84, 0.121580, , 
36.87, 0.120667, , 
36.90, 0.119858, , 
36.93, 0.119052, , 
36.96, 0.118247, , 
36.99, 0.117244, , 
37.02, 0.116381, , 
37.05, 0.115601, , 
37.08, 0.114900, , 
37.11, 0.114053, , 
37.14, 0.113317, , 
37.17, 0.112575, , 
37.20, 0.111811, , 
37.23, 0.110967, , 
37.26, 0.110304, , 
37.29, 0.109616, , 
37.32, 0.108921, , 
37.35, 0.108119, , 
37.38, 0.107491, , 
37.41, 0.106885, , 
37.44, 0.106253, , 
37.47, 0.105435, , 
37.50, 0.104756, , 
37.53, 0.104185, , 
37.56, 0.103640, , 
37.59, 0.102955, , 
37.62, 0.102346, , 
37.65, 0.101797, , 
37.68, 0.101299, , 
37.71, 0.100668, , 
37.74, 0.100116, , 
37.77, 0.099567, , 
37.80, 0.099044, , 
37.83, 0.098492, , 
37.86, 0.098083, , 
37.89, 0.097677, , 
37.92, 0.097229, , 
37.95, 0.096687, , 
37.98, 0.096243, , 
38.01, 0.095837, , 
38.04, 0.095434, , 
38.07, 0.094914, , 
38.10, 0.094432, , 
38.13, 0.093981, , 
38.16, 0.093578, , 
38.19, 0.093214, , 
38.22, 0.092909, , 
38.25, 0.092551, , 
38.28, 0.092164, , 
38.31, 0.091729, , 
38.34, 0.091349, , 
38.37, 0.090955, , 
38.40, 0.090552, , 
38.43, 0.090223, , 
38.46, 0.089899, , 
38.49, 0.089553, , 
38.52, 0.089071, , 
38.55, 0.088633, , 
38.58, 0.088253, , 
38.61, 0.087964, , 
38.64, 0.087650, , 
38.67, 0.087352, , 
38.70, 0.087054, , 
38.73, 0.086730, , 
38.76, 0.086365, , 
38.79, 0.086131, , 
38.82, 0.085896, , 
38.85, 0.085636, , 
38.88, 0.085344, , 
38.91, 0.085147, , 
38.94, 0.085030, , 
38.97, 0.084976, , 
39.00, 0.084849, , 
39.03, 0.084668, , 
39.06, 0.084567, , 
39.09, 0.084643, , 
39.12, 0.084776, , 
39.15, 0.084821, , 
39.18, 0.084849, , 
39.21, 0.084967, , 
39.24, 0.085274, , 
39.27, 0.085541, , 
39.30, 0.085779, , 
39.33, 0.086105, , 
39.36, 0.086660, , 
39.39, 0.087206, , 
39.42, 0.087783, , 
39.45, 0.088402, , 
39.48, 0.089217, , 
39.51, 0.090000, , 
39.54, 0.090870, , 
39.57, 0.091859, , 
39.60, 0.093042, , 
39.63, 0.094064, , 
39.66, 0.095199, , 
39.69, 0.096509, , 
39.72, 0.098241, , 
39.75, 0.099757, , 
39.78, 0.101251, , 
39.81, 0.102802, , 
39.84, 0.104769, , 
39.87, 0.106612, , 
39.90, 0.108464, , 
39.93, 0.110380, , 
39.96, 0.112702, , 
39.99, 0.114799, , 
40.02, 0.116965, , 
40.05, 0.119173, , 
40.08, 0.121824, , 
40.11, 0.124124, , 
40.14, 0.126490, , 
40.17, 0.128857, , 
40.20, 0.131569, , 
40.23, 0.133881, 8, 0.719
40.26, 0.136168, , 
40.29, 0.138461, , 
40.32, 0.141199, , 
40.35, 0.143562, , 
40.38, 0.145817, , 
40.41, 0.148015, , 
40.44, 0.150499, , 
40.47, 0.152580, , 
40.50, 0.154457, , 
40.53, 0.156598, , 
40.56, 0.158857, , 
40.59, 0.160744, , 
40.62, 0.162505, , 
40.65, 0.164189, , 
40.68, 0.166025, , 
40.71, 0.167450, , 
40.74, 0.168814, , 
40.77, 0.170177, , 
40.80, 0.171713, , 
40.83, 0.172896, , 
40.86, 0.174012, , 
40.89, 0.175059, , 
40.92, 0.176201, , 
40.95, 0.177029, , 
40.98, 0.177708, , 
41.01, 0.178301, , 
41.04, 0.178894, , 
41.07, 0.179335, , 
41.10, 0.179706, , 
41.13, 0.179982, , 
41.16, 0.180229, , 
41.19, 0.180331, , 
41.22, 0.180318, , 
41.25, 0.180242, , 
41.28, 0.180074, , 
41.31, 0.179865, , 
41.34, 0.179604, , 
41.37, 0.179309, , 
41.40, 0.178919, , 
41.43, 0.178469, , 
41.46, 0.177888, , 
41.49, 0.177264, , 
41.52, 0.176528, , 
41.55, 0.175919, , 
41.58, 0.175249, , 
41.61, 0.174479, , 
41.64, 0.173489, , 
41.67, 0.172623, , 
41.70, 0.171697, , 
41.73, 0.170717, , 
41.76, 0.169562, , 
41.76, 0.169394, , 
41.79, 0.168633, , 
41.82, 0.167402, , 
41.85, 0.166289, , 
41.88, 0.165029, , 
41.91, 0.163872, , 
41.94, 0.162676, , 
41.97, 0.161528, , 
42.00, 0.160221, , 
42.03, 0.159050, , 
42.06, 0.157797, , 
42.09, 0.156500, , 
42.12, 0.155066, , 
42.15, 0.153924, , 
42.18, 0.152773, , 
42.21, 0.151555, , 
42.24, 0.150045, , 
42.27, 0.148735, , 
42.30, 0.147504, , 
42.33, 0.146347, , 
42.36, 0.144986, , 
42.39, 0.143762, , 
42.42, 0.142578, , 
42.45, 0.141443, , 
42.48, 0.140104, , 
42.51, 0.138966, , 
42.54, 0.137789, , 
42.57, 0.136587, , 
42.60, 0.135229, , 
42.63, 0.134128, , 
42.66, 0.133037, , 
42.69, 0.131943, , 
42.72, 0.130715, , 
42.75, 0.129681, , 
42.78, 0.128685, , 
42.81, 0.127718, , 
42.84, 0.126595, , 
42.87, 0.125583, , 
42.90, 0.124562, , 
42.93, 0.123607, , 
42.96, 0.122541, , 
42.99, 0.121618, , 
43.02, 0.120689, , 
43.05, 0.119807, , 
43.08, 0.118827, , 
43.11, 0.117980, , 
43.14, 0.117108, , 
43.17, 0.116207, , 
43.20, 0.115179, , 
43.23, 0.114339, , 
43.26, 0.113571, , 
43.29, 0.112826, , 
43.32, 0.111969, , 
43.35, 0.111284, , 
43.38, 0.110605, , 
43.41, 0.109901, , 
43.44, 0.109083, , 
43.47, 0.108360, , 
43.50, 0.107678, , 
43.53, 0.107110, , 
43.56, 0.106453, , 
43.59, 0.105854, , 
43.62, 0.105264, , 
43.65, 0.104718, , 
43.68, 0.104163, , 
43.71, 0.103735, , 
43.74, 0.103323, , 
43.77, 0.102863, , 
43.80, 0.102314, , 
43.83, 0.101892, , 
43.86, 0.101492, , 
43.89, 0.101093, , 
43.92, 0.100652, , 
43.95, 0.100328, , 
43.98, 0.100062, , 
44.01, 0.099853, , 
44.04, 0.099621, , 
44.07, 0.099437, , 
44.10, 0.099278, , 
44.13, 0.099202, , 
44.16, 0.099199, , 
44.19, 0.099221, , 
44.22, 0.099218, , 
44.25, 0.099253, , 
44.28, 0.099412, , 
44.31, 0.099624, , 
44.34, 0.099913, , 
44.37, 0.100182, , 
44.40, 0.100455, , 
44.43, 0.100728, , 
44.46, 0.101109, , 
44.49, 0.101632, , 
44.52, 0.102289, , 
44.55, 0.102872, , 
44.58, 0.103475, , 
44.61, 0.104252, , 
44.64, 0.105010, , 
44.67, 0.105740, , 
44.70, 0.106406, , 
44.73, 0.107230, , 
44.76, 0.108071, , 
44.79, 0.109067, , 
44.82, 0.110050, , 
44.85, 0.111119, , 
44.88, 0.112017, , 
44.91, 0.113010, , 
44.94, 0.114079, , 
44.97, 0.115319, , 
45.00, 0.116356, , 
45.03, 0.117396, , 
45.06, 0.118481, , 
45.09, 0.119772, , 
45.12, 0.120889, , 
45.15, 0.121948, , 
45.18, 0.122995, , 
45.21, 0.124254, , 
45.24, 0.125383, 9, 0.715
45.27, 0.126478, , 
45.30, 0.127553, , 
45.33, 0.128768, , 
45.36, 0.129783, , 
45.39, 0.130757, , 
45.42, 0.131696, , 
45.45, 0.132711, , 
45.48, 0.133557, , 
45.51, 0.134408, , 
45.54, 0.135312, , 
45.57, 0.136349, , 
45.60, 0.137183, , 
45.63, 0.137938, , 
45.66, 0.138645, , 
45.69, 0.139464, , 
45.72, 0.140168, , 
45.75, 0.140815, , 
45.78, 0.141392, , 
45.81, 0.142042, , 
45.84, 0.142664, , 
45.87, 0.143257, , 
45.90, 0.143679, , 
45.93, 0.144066, , 
45.96, 0.144399, , 
45.99, 0.144796, , 
46.02, 0.145170, , 
46.05, 0.145503, , 
46.08, 0.145731, , 
46.11, 0.145842, , 
46.14, 0.146014, , 
46.17, 0.146267, , 
46.20, 0.146423, , 
46.23, 0.146489, , 
46.26, 0.146512, , 
46.29, 0.146537, , 
46.32, 0.146569, , 
46.35, 0.146496, , 
46.38, 0.146353, , 
46.41, 0.146185, , 
46.44, 0.146068, , 
46.47, 0.145903, , 
46.50, 0.145747, , 
46.53, 0.145430, , 
46.56, 0.145097, , 
46.59, 0.144837, , 
46.62, 0.144593, , 
46.65, 0.144237, , 
46.68, 0.143850, , 
46.71, 0.143403, , 
46.74, 0.142972, , 
46.77, 0.142515, , 
46.77, 0.142436, , 
46.80, 0.142027, , 
46.83, 0.141452, , 
46.86, 0.140840, , 
46.89, 0.140161, , 
46.92, 0.139594, , 
46.95, 0.139026, , 
46.98, 0.138388, , 
47.01, 0.137595, , 
47.04, 0.136926, , 
47.07, 0.136301, , 
47.10, 0.135686, , 
47.13, 0.134934, , 
47.16, 0.134246, , 
47.19, 0.133513, , 
47.22, 0.132803, , 
47.25, 0.132035, , 
47.28, 0.131324, , 
47.31, 0.130554, , 
47.34, 0.129808, , 
47.37, 0.128984, , 
47.40, 0.128264, , 
47.43, 0.127566, , 
47.46, 0.126839, , 
47.49, 0.125938, , 
47.52, 0.125215, , 
47.55, 0.124537, , 
47.58, 0.124077, , 
47.61, 0.122960, , 
47.64, 0.122218, , 
47.67, 0.121498, , 
47.70, 0.120664, , 
47.73, 0.120115, , 
47.76, 0.119281, , 
47.79, 0.118570, , 
47.82, 0.117796, , 
47.85, 0.117181, , 
47.88, 0.116775, , 
47.91, 0.115928, , 
47.94, 0.115110, , 
47.97, 0.114447, , 
48.00, 0.113850, , 
48.03, 0.113314, , 
48.06, 0.112613, , 
48.09, 0.111988, , 
48.12, 0.111424, , 
48.15, 0.110964, , 
48.18, 0.110551, , 
48.21, 0.110231, , 
48.24, 0.109876, , 
48.27, 0.109533, , 
48.30, 0.109241, , 
48.33, 0.109023, , 
48.36, 0.108899, , 
48.39, 0.108693, , 
48.42, 0.108585, , 
48.45, 0.108572, , 
48.48, 0.108617, , 
48.51, 0.108705, , 
48.54, 0.108810, , 
48.57, 0.108978, , 
48.60, 0.109200, , 
48.63, 0.109438, , 
48.66, 0.109768, , 
48.69, 0.110022, , 
48.72, 0.110440, , 
48.75, 0.110872, , 
48.78, 0.111528, , 
48.81, 0.112131, , 
48.84, 0.112734, , 
48.87, 0.113340, , 
48.90, 0.114094, , 
48.93, 0.114843, , 
48.96, 0.115588, , 
48.99, 0.116261, , 
49.02, 0.117063, , 
49.05, 0.117841, , 
49.08, 0.118694, , 
49.11, 0.119560, , 
49.14, 0.120540, , 
49.17, 0.121193, , 
49.20, 0.122116, , 
49.23, 0.122859, , 
49.26, 0.123769, , 
49.29, 0.124571, , 
49.32, 0.125222, , 
49.35, 0.126218, , 
49.38, 0.127239, , 
49.41, 0.128086, , 
49.44, 0.128834, , 
49.47, 0.129542, , 
49.50, 0.130183, , 
49.53, 0.131147, , 
49.56, 0.131880, , 
49.59, 0.132631, , 
49.62, 0.133434, , 
49.65, 0.134030, , 
49.68, 0.134642, , 
49.71, 0.135289, , 
49.74, 0.135974, , 
49.77, 0.136479, , 
49.80, 0.136939, , 
49.83, 0.137392, , 
49.86, 0.137960, , 
49.89, 0.138407, , 
49.92, 0.138718, , 
49.95, 0.138991, , 
49.98, 0.139280, , 
50.01, 0.139702, , 
50.04, 0.139924, , 
50.07, 0.140076, , 
50.10, 0.140250, , 
50.13, 0.140371, , 
50.16, 0.140533, , 
50.19, 0.140606, , 
50.22, 0.140615, , 
50.25, 0.140586, , 
50.28, 0.140586, 10, 0.719
50.31, 0.140634, , 
50.34, 0.140672, , 
50.37, 0.140653, , 
50.40, 0.140555, , 
50.43, 0.140409, , 
50.46, 0.140250, , 
50.49, 0.140082, , 
50.52, 0.139879, , 
50.55, 0.139635, , 
50.58, 0.139362, , 
50.61, 0.139216, , 
50.64, 0.138896, , 
50.67, 0.138525, , 
50.70, 0.138020, , 
50.73, 0.137576, , 
50.76, 0.137348, , 
50.79, 0.136932, , 
50.82, 0.136428, , 
50.85, 0.135908, , 
50.88, 0.135407, , 
50.91, 0.134953, , 
50.94, 0.134592, , 
50.97, 0.134049, , 
51.00, 0.133577, , 
51.03, 0.133028, , 
51.06, 0.132374, , 
51.09, 0.132048, , 
51.12, 0.131416, , 
51.15, 0.130896, , 
51.18, 0.130338, , 
51.21, 0.129903, , 
51.24, 0.129574, , 
51.27, 0.129085, , 
51.30, 0.128552, , 
51.33, 0.128095, , 
51.36, 0.127734, , 
51.39, 0.127474, , 
51.42, 0.127226, , 
51.45, 0.126808, , 
51.48, 0.126503, , 
51.51, 0.126243, , 
51.54, 0.126059, , 
51.57, 0.125973, , 
51.60, 0.125904, , 
51.63, 0.125843, , 
51.66, 0.125812, , 
51.69, 0.125827, , 
51.72, 0.125853, , 
51.75, 0.125945, , 
51.78, 0.126065, , 
51.81, 0.126214, , 
51.81, 0.126253, , 
51.84, 0.126494, , 
51.87, 0.126846, , 
51.90, 0.127274, , 
51.93, 0.127658, , 
51.96, 0.128067, , 
51.99, 0.128514, , 
52.02, 0.129079, , 
52.05, 0.129431, , 
52.08, 0.130148, , 
52.11, 0.130760, , 
52.14, 0.131518, , 
52.17, 0.132190, , 
52.20, 0.132622, , 
52.23, 0.133434, , 
52.26, 0.134236, , 
52.29, 0.134966, , 
52.32, 0.135699, , 
52.35, 0.136396, , 
52.38, 0.137043, , 
52.41, 0.137779, , 
52.44, 0.138445, , 
52.47, 0.139137, , 
52.50, 0.139920, , 
52.53, 0.140323, , 
52.56, 0.141135, , 
52.59, 0.141770, , 
52.62, 0.142436, , 
52.65, 0.142946, , 
52.68, 0.143390, , 
52.71, 0.143809, , 
52.74, 0.144304, , 
52.77, 0.144758, , 
52.80, 0.145230, , 
52.83, 0.145658, , 
52.86, 0.145953, , 
52.89, 0.146337, , 
52.92, 0.146620, , 
52.95, 0.146889, , 
52.98, 0.147165, , 
53.01, 0.147270, , 
53.04, 0.147416, , 
53.07, 0.147606, , 
53.10, 0.147847, , 
53.13, 0.147952, , 
53.16, 0.147974, , 
53.19, 0.147920, , 
53.22, 0.147819, , 
53.25, 0.147749, , 
53.28, 0.147679, , 
53.31, 0.147615, , 
53.34, 0.147511, , 
53.37, 0.147409, , 
53.40, 0.147324, , 
53.43, 0.147216, , 
53.46, 0.147013, , 
53.49, 0.146829, , 
53.52, 0.146715, , 
53.55, 0.146613, , 
53.58, 0.146442, , 
53.61, 0.146277, , 
53.64, 0.146153, , 
53.67, 0.146112, , 
53.70, 0.146134, , 
53.73, 0.146144, , 
53.76, 0.146118, , 
53.79, 0.146077, , 
53.82, 0.146074, , 
53.85, 0.146115, , 
53.88, 0.146217, , 
53.91, 0.146359, , 
53.94, 0.146423, , 
53.97, 0.146534, , 
54.00, 0.146788, , 
54.03, 0.147124, , 
54.06, 0.147365, , 
54.09, 0.147596, , 
54.12, 0.147907, , 
54.15, 0.148380, , 
54.18, 0.148811, , 
54.21, 0.149220, , 
54.24, 0.149614, , 
54.27, 0.150099, , 
54.30, 0.150527, , 
54.33, 0.151025, , 
54.36, 0.151466, , 
54.39, 0.151936, , 
54.42, 0.152329, , 
54.45, 0.152770, , 
54.48, 0.153252, , 
54.51, 0.153769, , 
54.54, 0.154175, , 
54.57, 0.154581, , 
54.60, 0.155022, , 
54.63, 0.155422, , 
54.66, 0.156005, , 
54.69, 0.156367, , 
54.72, 0.156640, , 
54.75, 0.157017, , 
54.78, 0.157245, , 
54.81, 0.157655, , 
54.84, 0.157918, , 
54.87, 0.158130, , 
54.90, 0.158280, , 
54.93, 0.158473, , 
54.96, 0.158676, , 
54.99, 0.158816, , 
55.02, 0.158908, , 
55.05, 0.159063, , 
55.08, 0.159237, , 
55.11, 0.159342, , 
55.14, 0.159406, , 
55.17, 0.159415, , 
55.20, 0.159520, , 
55.23, 0.159704, , 
55.26, 0.159840, , 
55.29, 0.159904, , 
55.32, 0.159973, , 
55.35, 0.160116, 11, 0.720
55.38, 0.160268, , 
55.41, 0.160402, , 
55.44, 0.160589, , 
55.47, 0.160754, , 
55.50, 0.160938, , 
55.53, 0.161150, , 
55.56, 0.161410, , 
55.59, 0.161670, , 
55.62, 0.161873, , 
55.65, 0.162149, , 
55.68, 0.162498, , 
55.71, 0.162923, , 
55.74, 0.163161, , 
55.77, 0.163494, , 
55.80, 0.163811, , 
55.83, 0.164236, , 
55.86, 0.164560, , 
55.89, 0.164801, , 
55.92, 0.165172, , 
55.95, 0.165569, , 
55.98, 0.165902, , 
56.01, 0.166219, , 
56.04, 0.166539, , 
56.07, 0.166780, , 
56.10, 0.167101, , 
56.13, 0.167354, , 
56.16, 0.167611, , 
56.19, 0.167903, , 
56.22, 0.168078, , 
56.25, 0.168182, , 
56.28, 0.168325, , 
56.31, 0.168553, , 
56.34, 0.168687, , 
56.37, 0.168722, , 
56.40, 0.168722, , 
56.43, 0.168817, , 
56.46, 0.168998, , 
56.49, 0.169153, , 
56.52, 0.169220, , 
56.55, 0.169223, , 
56.58, 0.169232, , 
56.61, 0.169267, , 
56.64, 0.169321, , 
56.67, 0.169426, , 
56.70, 0.169530, , 
56.73, 0.169632, , 
56.76, 0.169711, , 
56.79, 0.169771, , 
56.82, 0.169794, , 
56.85, 0.169822, , 
56.86, 0.169841, , 
56.88, 0.169905, , 
56.91, 0.170092, , 
56.94, 0.170197, , 
56.97, 0.170260, , 
57.00, 0.170377, , 
57.03, 0.170466, , 
57.06, 0.170641, , 
57.09, 0.170739, , 
57.12, 0.170786, , 
57.15, 0.170771, , 
57.18, 0.170793, , 
57.21, 0.170932, , 
57.24, 0.171132, , 
57.27, 0.171227, , 
57.30, 0.171253, , 
57.33, 0.171243, , 
57.36, 0.171243, , 
57.39, 0.171278, , 
57.42, 0.171304, , 
57.45, 0.171275, , 
57.48, 0.171173, , 
57.51, 0.171066, , 
57.54, 0.170945, , 
57.57, 0.170891, , 
57.60, 0.170825, , 
57.63, 0.170755, , 
57.66, 0.170679, , 
57.69, 0.170523, , 
57.72, 0.170425, , 
57.75, 0.170339, , 
57.78, 0.170203, , 
57.81, 0.170047, , 
57.84, 0.169949, , 
57.87, 0.169889, , 
57.90, 0.169854, , 
57.93, 0.169762, , 
57.96, 0.169594, , 
57.99, 0.169480, , 
58.02, 0.169423, , 
58.05, 0.169356, , 
58.08, 0.169188, , 
58.11, 0.169023, , 
58.14, 0.168956, , 
58.17, 0.168893, , 
58.20, 0.168779, , 
58.23, 0.168604, , 
58.26, 0.168446, , 
58.29, 0.168338, , 
58.32, 0.168201, , 
58.35, 0.168071, , 
58.38, 0.167916, , 
58.41, 0.167732, , 
58.44, 0.167535, , 
58.47, 0.167418, , 
58.50, 0.167202, , 
58.53, 0.167021, , 
58.56, 0.166809, , 
58.59, 0.166650, , 
58.62, 0.166523, , 
58.65, 0.166301, , 
58.68, 0.166044, , 
58.71, 0.165784, , 
58.74, 0.165569, , 
58.77, 0.165375, , 
58.80, 0.165207, , 
58.83, 0.164909, , 
58.86, 0.164589, , 
58.89, 0.164290, , 
58.92, 0.164024, , 
58.95, 0.163853, , 
58.98, 0.163409, , 
59.01, 0.162999, , 
59.04, 0.162650, , 
59.07, 0.162387, , 
59.10, 0.162083, , 
59.13, 0.161693, , 
59.16, 0.161176, , 
59.19, 0.160731, , 
59.22, 0.160329, , 
59.25, 0.159932, , 
59.28, 0.159431, , 
59.31, 0.158971, , 
59.34, 0.158514, , 
59.37, 0.158086, , 
59.40, 0.157575, , 
59.43, 0.157217, , 
59.46, 0.156433, , 
59.49, 0.155764, , 
59.52, 0.155041, , 
59.55, 0.154419, , 
59.58, 0.153769, , 
59.61, 0.153097, , 
59.64, 0.152237, , 
59.67, 0.151473, , 
59.70, 0.150689, , 
59.73, 0.149864, , 
59.76, 0.149097, , 
59.79, 0.147939, , 
59.82, 0.147079, , 
59.85, 0.146248, , 
59.88, 0.145259, , 
59.91, 0.144685, , 
59.94, 0.143517, , 
59.97, 0.142604, , 
60.00, 0.141614, , 
60.03, 0.140707, , 
60.06, 0.140060, , 
60.09, 0.138731, , 
60.12, 0.137554, , 
60.15, 0.136666, , 
60.18, 0.135787, , 
60.21, 0.134807, , 
60.24, 0.133910, , 
60.27, 0.132609, , 
60.30, 0.131696, , 
60.33, 0.130760, 12, 0.713
60.36, 0.129577, , 
60.39, 0.128911, , 
60.42, 0.127632, , 
60.45, 0.126687, , 
60.48, 0.125650, , 
60.51, 0.124663, , 
60.54, 0.123994, , 
60.57, 0.122690, , 
60.60, 0.121590, , 
60.63, 0.120717, , 
60.66, 0.119852, , 
60.69, 0.118944, , 
60.72, 0.118044, , 
60.75, 0.117048, , 
60.78, 0.116223, , 
60.81, 0.115392, , 
60.84, 0.114472, , 
60.87, 0.113866, , 
60.90, 0.112972, , 
60.93, 0.112277, , 
60.96, 0.111465, , 
60.99, 0.110694, , 
61.02, 0.110193, , 
61.05, 0.109260, , 
61.08, 0.108464, , 
61.11, 0.107833, , 
61.14, 0.107157, , 
61.17, 0.106466, , 
61.20, 0.105813, , 
61.23, 0.105105, , 
61.26, 0.104550, , 
61.29, 0.103954, , 
61.32, 0.103202, , 
61.35, 0.102818, , 
61.38, 0.102174, , 
61.41, 0.101724, , 
61.44, 0.101188, , 
61.47, 0.100712, , 
61.50, 0.100347, , 
61.53, 0.099849, , 
61.56, 0.099393, , 
61.59, 0.098952, , 
61.62, 0.098485, , 
61.65, 0.098121, , 
61.68, 0.097876, , 
61.71, 0.097496, , 
61.74, 0.097134, , 
61.77, 0.096757, , 
61.80, 0.096379, , 
61.83, 0.096192, , 
61.86, 0.095802, , 
61.86, 0.095735, , 
61.89, 0.095444, , 
61.92, 0.095038, , 
61.95, 0.094695, , 
61.98, 0.094390, , 
62.01, 0.094143, , 
62.04, 0.093842, , 
62.07, 0.093505, , 
62.10, 0.093176, , 
62.13, 0.092915, , 
62.16, 0.092690, , 
62.19, 0.092326, , 
62.22, 0.092034, , 
62.25, 0.091745, , 
62.28, 0.091479, , 
62.31, 0.091339, , 
62.34, 0.091000, , 
62.37, 0.090689, , 
62.40, 0.090334, , 
62.43, 0.090029, , 
62.46, 0.089766, , 
62.49, 0.089604, , 
62.52, 0.089223, , 
62.55, 0.088963, , 
62.58, 0.088719, , 
62.61, 0.088526, , 
62.64, 0.088307, , 
62.67, 0.088081, , 
62.70, 0.087828, , 
62.73, 0.087590, , 
62.76, 0.087460, , 
62.79, 0.087380, , 
62.82, 0.087165, , 
62.85, 0.086946, , 
62.88, 0.086667, , 
62.91, 0.086524, , 
62.94, 0.086432, , 
62.97, 0.086321, , 
63.00, 0.086039, , 
63.03, 0.085899, , 
63.06, 0.085756, , 
63.09, 0.085630, , 
63.12, 0.085531, , 
63.15, 0.085341, , 
63.18, 0.085138, , 
63.21, 0.084992, , 
63.24, 0.084910, , 
63.27, 0.084802, , 
63.30, 0.084567, , 
63.33, 0.084434, , 
63.36, 0.084367, , 
63.39, 0.084269, , 
63.42, 0.084132, , 
63.45, 0.084006, , 
63.48, 0.083898, , 
63.51, 0.083799, , 
63.54, 0.083685, , 
63.57, 0.083546, , 
63.60, 0.083444, , 
63.63, 0.083216, , 
63.66, 0.083051, , 
63.69, 0.082971, , 
63.72, 0.082930, , 
63.75, 0.082879, , 
63.78, 0.082645, , 
63.81, 0.082467, , 
63.84, 0.082439, , 
63.87, 0.082375, , 
63.90, 0.082217, , 
63.93, 0.082014, , 
63.96, 0.081937, , 
63.99, 0.081893, , 
64.02, 0.081785, , 
64.05, 0.081620, , 
64.08, 0.081522, , 
64.11, 0.081303, , 
64.14, 0.081151, , 
64.17, 0.081049, , 
64.20, 0.080983, , 
64.23, 0.080922, , 
64.26, 0.080704, , 
64.29, 0.080539, , 
64.32, 0.080450, , 
64.35, 0.080301, , 
64.38, 0.080123, , 
64.41, 0.080012, , 
64.44, 0.079911, , 
64.47, 0.079841, , 
64.50, 0.079708, , 
64.53, 0.079533, , 
64.56, 0.079460, , 
64.59, 0.079349, , 
64.62, 0.079235, , 
64.65, 0.079102, , 
64.68, 0.078997, , 
64.71, 0.078953, , 
64.74, 0.078892, , 
64.77, 0.078788, , 
64.80, 0.078664, , 
64.83, 0.078553, , 
64.86, 0.078455, , 
64.89, 0.078420, , 
64.92, 0.078426, , 
64.95, 0.078388, , 
64.98, 0.078252, , 
65.01, 0.078045, , 
65.04, 0.077982, , 
65.07, 0.077934, , 
65.10, 0.077938, , 
65.13, 0.077931, , 
65.16, 0.077881, , 
65.19, 0.077779, , 
65.22, 0.077655, , 
65.25, 0.077566, , 
65.28, 0.077494, , 
65.31, 0.077424, , 
65.34, 0.077348, , 
65.37, 0.077252, 13, 0.718
65.40, 0.077116, , 
65.43, 0.077040, , 
65.46, 0.076954, , 
65.49, 0.076878, , 
65.52, 0.076840, , 
65.55, 0.076710, , 
65.58, 0.076593, , 
65.61, 0.076485, , 
65.64, 0.076425, , 
65.67, 0.076415, , 
65.70, 0.076387, , 
65.73, 0.076276, , 
65.76, 0.076117, , 
65.79, 0.076000, , 
65.82, 0.075955, , 
65.85, 0.075961, , 
65.88, 0.075977, , 
65.91, 0.075942, , 
65.94, 0.075908, , 
65.97, 0.075904, , 
66.00, 0.075927, , 
66.03, 0.075955, , 
66.06, 0.075942, , 
66.09, 0.075911, , 
66.12, 0.075904, , 
66.15, 0.075923, , 
66.18, 0.075968, , 
66.21, 0.075955, , 
66.24, 0.075914, , 
66.27, 0.075895, , 
66.30, 0.075911, , 
66.33, 0.075939, , 
66.36, 0.075949, , 
66.39, 0.075870, , 
66.42, 0.075724, , 
66.45, 0.075590, , 
66.48, 0.075555, , 
66.51, 0.075505, , 
66.54, 0.075448, , 
66.57, 0.075384, , 
66.60, 0.075311, , 
66.63, 0.075270, , 
66.66, 0.075121, , 
66.69, 0.074981, , 
66.72, 0.074870, , 
66.75, 0.074747, , 
66.78, 0.074642, , 
66.81, 0.074531, , 
66.84, 0.074318, , 
66.87, 0.074144, , 
66.90, 0.074052, , 
66.90, 0.074046, , 
66.93, 0.074008, , 
66.96, 0.073931, , 
66.99, 0.073700, , 
67.02, 0.073459, , 
67.05, 0.073249, , 
67.08, 0.073151, , 
67.11, 0.073072, , 
67.14, 0.072856, , 
67.17, 0.072590, , 
67.20, 0.072368, , 
67.23, 0.072222, , 
67.26, 0.072111, , 
67.29, 0.072000, , 
67.32, 0.071727, , 
67.35, 0.071572, , 
67.38, 0.071457, , 
67.41, 0.071299, , 
67.44, 0.071216, , 
67.47, 0.070988, , 
67.50, 0.070823, , 
67.53, 0.070702, , 
67.56, 0.070591, , 
67.59, 0.070401, , 
67.62, 0.070223, , 
67.65, 0.070090, , 
67.68, 0.069960, , 
67.71, 0.069798, , 
67.74, 0.069687, , 
67.77, 0.069576, , 
67.80, 0.069459, , 
67.83, 0.069313, , 
67.86, 0.069231, , 
67.89, 0.069151, , 
67.92, 0.069037, , 
67.95, 0.068942, , 
67.98, 0.068758, , 
68.01, 0.068685, , 
68.04, 0.068634, , 
68.07, 0.068561, , 
68.10, 0.068523, , 
68.13, 0.068454, , 
68.16, 0.068346, , 
68.19, 0.068225, , 
68.22, 0.068130, , 
68.25, 0.068051, , 
68.28, 0.068038, , 
68.31, 0.068060, , 
68.34, 0.068079, , 
68.37, 0.068051, , 
68.40, 0.068003, , 
68.43, 0.067930, , 
68.46, 0.067791, , 
68.49, 0.067718, , 
68.52, 0.067651, , 
68.55, 0.067562, , 
68.58, 0.067546, , 
68.61, 0.067553, , 
68.64, 0.067591, , 
68.67, 0.067565, , 
68.70, 0.067530, , 
68.73, 0.067524, , 
68.76, 0.067540, , 
68.79, 0.067581, , 
68.82, 0.067569, , 
68.85, 0.067534, , 
68.88, 0.067518, , 
68.91, 0.067489, , 
68.94, 0.067394, , 
68.97, 0.067267, , 
69.00, 0.067150, , 
69.03, 0.067064, , 
69.06, 0.067061, , 
69.09, 0.067083, , 
69.12, 0.067086, , 
69.15, 0.067042, , 
69.18, 0.067023, , 
69.21, 0.067029, , 
69.24, 0.067048, , 
69.27, 0.067086, , 
69.30, 0.067061, , 
69.33, 0.067029, , 
69.36, 0.067032, , 
69.39, 0.067058, , 
69.42, 0.067090, , 
69.45, 0.067055, , 
69.48, 0.067013, , 
69.51, 0.067013, , 
69.54, 0.067042, , 
69.57, 0.067080, , 
69.60, 0.067055, , 
69.63, 0.067007, , 
69.66, 0.067017, , 
69.69, 0.067058, , 
69.72, 0.067080, , 
69.75, 0.067071, , 
69.78, 0.067032, , 
69.81, 0.067010, , 
69.84, 0.067045, , 
69.87, 0.067061, , 
69.90, 0.067064, , 
69.93, 0.067017, , 
69.96, 0.066950, , 
69.99, 0.066849, , 
70.02, 0.066782, , 
70.05, 0.066684, , 
70.08, 0.066579, , 
70.11, 0.066531, , 
70.14, 0.066547, , 
70.17, 0.066576, , 
70.20, 0.066576, , 
70.23, 0.066538, , 
70.26, 0.066443, , 
70.29, 0.066331, , 
70.32, 0.066224, , 
70.35, 0.066167, , 
70.38, 0.066090, , 
70.41, 0.066033, 14, 0.719
70.44, 0.066040, , 
70.47, 0.066084, , 
70.50, 0.066097, , 
70.53, 0.066065, , 
70.56, 0.066014, , 
70.59, 0.066027, , 
70.62, 0.066065, , 
70.65, 0.066078, , 
70.68, 0.066049, , 
70.71, 0.065964, , 
70.74, 0.065859, , 
70.77, 0.065754, , 
70.80, 0.065678, , 
70.83, 0.065646, , 
70.86, 0.065577, , 
70.89, 0.065558, , 
70.92, 0.065580, , 
70.95, 0.065605, , 
70.98, 0.065592, , 
71.01, 0.065494, , 
71.04, 0.065326, , 
71.07, 0.065218, , 
71.10, 0.065180, , 
71.13, 0.065133, , 
71.16, 0.065079, , 
71.19, 0.065034, , 
71.22, 0.065060, , 
71.25, 0.065098, , 
71.28, 0.065088, , 
71.31, 0.065060, , 
71.34, 0.065031, , 
71.37, 0.065050, , 
71.40, 0.065094, , 
71.43, 0.065098, , 
71.46, 0.065047, , 
71.49, 0.064895, , 
71.52, 0.064749, , 
71.55, 0.064688, , 
71.58, 0.064666, , 
71.61, 0.064615, , 
71.64, 0.064552, , 
71.67, 0.064555, , 
71.70, 0.064600, , 
71.73, 0.064609, , 
71.76, 0.064581, , 
71.79, 0.064565, , 
71.82, 0.064555, , 
71.85, 0.064606, , 
71.88, 0.064742, , 
71.91, 0.064847, , 
71.94, 0.064876, , 
71.94, 0.064895, , 
71.97, 0.064974, , 
72.00, 0.065047, , 
72.03, 0.065060, , 
72.06, 0.065050, , 
72.09, 0.065025, , 
72.12, 0.065025, , 
72.15, 0.065063, , 
72.18, 0.065104, , 
72.21, 0.065098, , 
72.24, 0.065044, , 
72.27, 0.065041, , 
72.30, 0.065063, , 
72.33, 0.065104, , 
72.36, 0.065085, , 
72.39, 0.065044, , 
72.42, 0.065025, , 
72.45, 0.065050, , 
72.48, 0.065104, , 
72.51, 0.065101, , 
72.54, 0.065063, , 
72.57, 0.065037, , 
72.60, 0.065047, , 
72.63, 0.065091, , 
72.66, 0.065101, , 
72.69, 0.065063, , 
72.72, 0.065025, , 
72.75, 0.065031, , 
72.78, 0.065085, , 
72.81, 0.065148, , 
72.84, 0.065231, , 
72.87, 0.065336, , 
72.90, 0.065405, , 
72.93, 0.065526, , 
72.96, 0.065573, , 
72.99, 0.065554, , 
73.02, 0.065519, , 
73.05, 0.065526, , 
73.08, 0.065561, , 
73.11, 0.065602, , 
73.14, 0.065573, , 
73.17, 0.065539, , 
73.20, 0.065539, , 
73.23, 0.065561, , 
73.26, 0.065592, , 
73.29, 0.065592, , 
73.32, 0.065662, , 
73.35, 0.065783, , 
73.38, 0.065872, , 
73.41, 0.066017, , 
73.44, 0.066037, , 
73.47, 0.066017, , 
73.50, 0.066017, , 
73.53, 0.066040, , 
73.56, 0.066059, , 
73.59, 0.066068, , 
73.62, 0.066033, , 
73.65, 0.066008, , 
73.68, 0.066037, , 
73.71, 0.066071, , 
73.74, 0.066071, , 
73.77, 0.066033, , 
73.80, 0.066008, , 
73.83, 0.066037, , 
73.86, 0.066059, , 
73.89, 0.066075, , 
73.92, 0.066037, , 
73.95, 0.066008, , 
73.98, 0.066024, , 
74.01, 0.066065, , 
74.04, 0.066075, , 
74.07, 0.066046, , 
74.10, 0.066017, , 
74.13, 0.066024, , 
74.16, 0.066141, , 
74.19, 0.066230, , 
74.22, 0.066376, , 
74.25, 0.066430, , 
74.28, 0.066484, , 
74.31, 0.066544, , 
74.34, 0.066566, , 
74.37, 0.066550, , 
74.40, 0.066515, , 
74.43, 0.066512, , 
74.46, 0.066541, , 
74.49, 0.066582, , 
74.52, 0.066563, , 
74.55, 0.066522, , 
74.58, 0.066512, , 
74.61, 0.066547, , 
74.64, 0.066579, , 
74.67, 0.066563, , 
74.70, 0.066528, , 
74.73, 0.066522, , 
74.76, 0.066550, , 
74.79, 0.066576, , 
74.82, 0.066566, , 
74.85, 0.066547, , 
74.88, 0.066515, , 
74.91, 0.066541, , 
74.94, 0.066576, , 
74.97, 0.066617, , 
75.00, 0.066680, , 
75.03, 0.066817, , 
75.06, 0.066928, , 
75.09, 0.067017, , 
75.12, 0.067042, , 
75.15, 0.067036, , 
75.18, 0.067007, , 
75.21, 0.067029, , 
75.24, 0.067067, , 
75.27, 0.067074, , 
75.30, 0.067039, , 
75.33, 0.067020, , 
75.36, 0.067026, , 
75.39, 0.067061, , 
75.42, 0.067071, 15, 0.714
75.45, 0.067039, , 
75.48, 0.067013, , 
75.51, 0.067020, , 
75.54, 0.067055, , 
75.57, 0.067080, , 
75.60, 0.067042, , 
75.63, 0.067010, , 
75.66, 0.067010, , 
75.69, 0.067058, , 
75.72, 0.067080, , 
75.75, 0.067052, , 
75.78, 0.067010, , 
75.81, 0.067007, , 
75.84, 0.067029, , 
75.87, 0.067064, , 
75.90, 0.067048, , 
75.93, 0.067010, , 
75.96, 0.067007, , 
75.99, 0.067099, , 
76.02, 0.067277, , 
76.05, 0.067385, , 
76.08, 0.067426, , 
76.11, 0.067454, , 
76.14, 0.067502, , 
76.17, 0.067546, , 
76.20, 0.067546, , 
76.23, 0.067515, , 
76.26, 0.067499, , 
76.29, 0.067518, , 
76.32, 0.067562, , 
76.35, 0.067569, , 
76.38, 0.067524, , 
76.41, 0.067505, , 
76.44, 0.067540, , 
76.47, 0.067692, , 
76.50, 0.067854, , 
76.53, 0.067917, , 
76.56, 0.067946, , 
76.59, 0.067975, , 
76.62, 0.068025, , 
76.65, 0.068041, , 
76.68, 0.068022, , 
76.71, 0.067990, , 
76.74, 0.067997, , 
76.77, 0.068022, , 
76.80, 0.068057, , 
76.83, 0.068044, , 
76.86, 0.068000, , 
76.89, 0.067997, , 
76.92, 0.068019, , 
76.95, 0.068054, , 
76.95, 0.068054, , 
76.98, 0.068041, , 
77.01, 0.068067, , 
77.04, 0.068178, , 
77.07, 0.068333, , 
77.10, 0.068425, , 
77.13, 0.068492, , 
77.16, 0.068482, , 
77.19, 0.068482, , 
77.22, 0.068526, , 
77.25, 0.068552, , 
77.28, 0.068546, , 
77.31, 0.068504, , 
77.34, 0.068488, , 
77.37, 0.068587, , 
77.40, 0.068660, , 
77.43, 0.068856, , 
77.46, 0.068929, , 
77.49, 0.068952, , 
77.52, 0.068996, , 
77.55, 0.069031, , 
77.58, 0.069021, , 
77.61, 0.068990, , 
77.64, 0.068986, , 
77.67, 0.068996, , 
77.70, 0.069040, , 
77.73, 0.069120, , 
77.76, 0.069221, , 
77.79, 0.069297, , 
77.82, 0.069405, , 
77.85, 0.069478, , 
77.88, 0.069491, , 
77.91, 0.069497, , 
77.94, 0.069475, , 
77.97, 0.069481, , 
78.00, 0.069510, , 
78.03, 0.069519, , 
78.06, 0.069507, , 
78.09, 0.069478, , 
78.12, 0.069481, , 
78.15, 0.069510, , 
78.18, 0.069541, , 
78.21, 0.069529, , 
78.24, 0.069484, , 
78.27, 0.069481, 16, 0.406
78.30, 0.069522, , 
78.33, 0.069646, , 
78.36, 0.069760, , 
78.39, 0.069830, , 
78.42, 0.069897, , 
78.45, 0.069963, , 
78.48, 0.070005, , 
78.51, 0.070001, , 
78.54, 0.069979, , 
78.57, 0.069982, , 
78.60, 0.070128, , 
78.63, 0.070290, , 
78.66, 0.070392, , 
78.69, 0.070407, , 
78.72, 0.070439, , 
78.75, 0.070471, , 
78.78, 0.070506, , 
78.81, 0.070512, , 
78.84, 0.070474, , 
78.87, 0.070449, , 
78.90, 0.070477, , 
78.93, 0.070515, , 
78.96, 0.070525, , 
78.99, 0.070496, , 
79.02, 0.070465, , 
79.05, 0.070465, , 
79.08, 0.070503, , 
79.11, 0.070515, , 
79.14, 0.070487, , 
79.17, 0.070474, , 
79.20, 0.070471, , 
79.23, 0.070499, , 
79.26, 0.070515, , 
79.29, 0.070496, , 
79.32, 0.070496, , 
79.35, 0.070579, , 
79.38, 0.070779, , 
79.41, 0.070905, , 
79.44, 0.070950, , 
79.47, 0.070937, , 
79.50, 0.070943, , 
79.53, 0.070982, , 
79.56, 0.071016, , 
79.59, 0.071004, , 
79.62, 0.070963, , 
79.65, 0.070953, , 
79.68, 0.070985, , 
79.71, 0.071026, , 
79.74, 0.071004, , 
79.77, 0.070969, , 
79.80, 0.070963, , 
80.98, , A, 0.385
